Quinine stock,,
Wavelength (nm),Abs,
700.0075073,0.00525134569,
699.0003662,0.005241336767,
697.9928589,0.00509395916,
696.9850464,0.005544107873,
696.0130005,0.005149671808,
695.0045166,0.005680937786,
693.9957886,0.005827780347,
692.9866333,0.00552869169,
692.0133057,0.004966059234,
691.003479,0.005793045741,
689.9934692,0.004982031416,
688.9830322,0.004586901981,
688.0084229,0.005162297748,
686.9973755,0.004502384923,
685.9860229,0.005544160493,
685.010437,0.004582611844,
683.9985352,0.005151033867,
682.986145,0.005189096555,
682.0096436,0.004895395134,
680.9966431,0.00463566836,
679.9834595,0.004175273702,
679.0060425,0.004510519095,
677.9921265,0.005135291256,
677.0141602,0.004622403532,
675.9995728,0.005414161831,
674.9847412,0.004821549635,
674.0057983,0.004722252954,
672.9903564,0.004828328732,
672.0108032,0.004727905616,
670.9946899,0.005332995206,
670.0146484,0.004682844505,
668.9978027,0.004140723031,
668.0171509,0.00462164497,
666.9996948,0.005555303302,
665.9821167,0.005200937856,
665.0004883,0.003748525167,
663.9821777,0.005248672795,
663,0.004652780015,
662.0174561,0.005567102227,
660.998291,0.005181473214,
660.0151978,0.004951082636,
658.9953613,0.00351878861,
658.0116577,0.004863457754,
656.9912109,0.003927888349,
656.006958,0.004487528466,
654.9859009,0.005277206656,
654.0010376,0.00478548184,
653.0159302,0.005398881622,
651.9939575,0.004737038631,
651.0081787,0.004917229526,
649.9857178,0.003946225625,
648.9993896,0.004484703764,
648.0127563,0.004816681147,
646.9893188,0.004682634957,
646.0021362,0.004476072732,
645.0146484,0.003653702559,
643.9902954,0.004681954626,
643.0022583,0.003503313521,
642.0139771,0.004209147301,
640.9887085,0.004446519539,
639.9998169,0.004293607548,
639.0106201,0.004288588185,
637.9844971,0.004758708179,
636.994751,0.004421100486,
636.0047607,0.004779723939,
635.0144043,0.004116288386,
633.9871216,0.004539160989,
632.9962158,0.004470528103,
632.0050659,0.003488752525,
631.0136719,0.004155515227,
629.9851685,0.004598543979,
628.9931641,0.004279307555,
628.0009766,0.003872044617,
627.0083008,0.003931623418,
626.0155029,0.003336725058,
624.9856567,0.003506523324,
623.9921875,0.004193725996,
622.9985962,0.003757768311,
622.0046387,0.003604915692,
621.010376,0.004435797222,
620.0159302,0.003936508205,
618.984375,0.003787561785,
617.9892578,0.003263039282,
616.9939575,0.003711528378,
615.9984131,0.003420233028,
615.0025635,0.004132281989,
614.0063477,0.003462032182,
613.0100708,0.003612250322,
612.0133667,0.00392890675,
611.0164185,0.004140566569,
609.9822998,0.003904405748,
608.9848022,0.00356553006,
607.9870605,0.004090339877,
606.9890137,0.003985097166,
605.9907837,0.004351413809,
604.9921875,0.003612146014,
603.9934082,0.003730326658,
602.9943848,0.002975250594,
601.9949951,0.003375933506,
600.9953613,0.003476357553,
599.9955444,0.00354940095,
598.9954224,0.003433878766,
597.9949341,0.004103823565,
596.9942627,0.003500938881,
595.9934082,0.003006736748,
594.9922485,0.004069670569,
593.9907227,0.003140892135,
592.9890137,0.003746227361,
591.9871216,0.003751240671,
590.9848022,0.002997613978,
589.9823608,0.003621960524,
589.0167236,0.00331335282,
588.0137939,0.00327540189,
587.010498,0.003550862428,
586.006958,0.003483794397,
585.0032349,0.003803334199,
583.9992065,0.003573124995,
582.9949341,0.002543898532,
581.9903564,0.00371400849,
580.9855957,0.003789755283,
580.0177612,0.003317682771,
579.0124512,0.003445202485,
578.0068359,0.00403238507,
577.0010986,0.003778814105,
575.9950562,0.004157370888,
574.9887085,0.003670201171,
573.9821167,0.00420198543,
573.0125732,0.004121436737,
572.0055542,0.00353716081,
570.998291,0.003414101899,
569.9906616,0.004062903114,
568.9828491,0.003843107028,
568.012085,0.004826365504,
567.0038452,0.003917727154,
565.9953003,0.003933817614,
564.9865112,0.003131375415,
564.0147705,0.004262367729,
563.0055542,0.003558013355,
561.9959717,0.003889361164,
560.986145,0.003947113641,
560.0135498,0.003855068469,
559.0032959,0.003610501532,
557.9927979,0.003945650999,
556.9820557,0.004073799122,
556.0084839,0.004103771411,
554.9972534,0.003969579469,
553.9857178,0.004169811029,
553.0115356,0.003753668861,
551.9995728,0.003767298767,
550.9873047,0.00381129887,
550.0123901,0.003940060735,
548.9996948,0.004450547043,
547.9868164,0.004484076053,
547.0111694,0.003829187481,
545.9978027,0.003802054562,
544.9841309,0.004023815505,
544.0078125,0.004161630757,
542.9937134,0.004491504282,
542.0169067,0.004215524998,
541.0024414,0.002538716886,
539.9875488,0.002873508958,
539.0101318,0.003656286979,
537.994873,0.004646867048,
537.0169678,0.003800984006,
536.0012817,0.003053944558,
534.9852905,0.003778422484,
534.0066528,0.004787314218,
532.9902344,0.002687938744,
532.0112915,0.002884818241,
530.9943848,0.003635299159,
530.0148926,0.004683420062,
528.9975586,0.004351492506,
528.0177002,0.002409797162,
526.9998169,0.002575145336,
525.9818115,0.002849067328,
525.0012817,0.002054580953,
523.9827881,0.002535410225,
523.0018311,0.002903945511,
521.9828491,0.003285078565,
521.0014648,0.003252007067,
519.9820557,0.003602331737,
519.0001831,0.003116409527,
518.0180664,0.00236705807,
516.9980469,0.002360941609,
516.015564,0.002641005209,
514.9950562,0.003044664161,
514.012146,0.003197554499,
512.9911499,0.003039033618,
512.0077515,0.003153042868,
510.9864197,0.002948249225,
510.002655,0.003253754461,
509.0186768,0.00296529429,
507.9966431,0.002931621624,
507.0122375,0.002941942075,
505.9897766,0.00312146754,
505.0048523,0.002848181408,
503.9819641,0.002780935261,
502.9967346,0.003018649062,
502.011261,0.002872075653,
500.9877319,0.002921119099,
500.0018005,0.003197085112,
499.0157471,0.003068152117,
497.9916077,0.003108066507,
497.0050659,0.00275425869,
496.0184021,0.001715117716,
494.9935303,0.002728495281,
494.0064087,0.002943219151,
492.9811401,0.003853762522,
491.9936218,0.003051155247,
491.0059204,0.001576387906,
490.0180359,0.002478782088,
488.9918823,0.00373810716,
488.0036011,0.00261043082,
487.0150757,0.001459752908,
485.9883118,0.002665252658,
484.9993896,0.004108056892,
484.0102844,0.002501432551,
482.9828796,0.0002343053202,
481.9933777,0.0006312478217,
481.0036316,0.001109983888,
480.0137024,0.001670783851,
478.9855957,0.002169814892,
477.9952087,0.001857011579,
477.0047607,0.001722680405,
476.0140381,0.001369168051,
474.9850159,0.001741990563,
473.993927,0.0020054013,
473.0026245,0.001458116574,
472.0111084,0.001518144389,
470.9813232,0.00151848211,
469.9894714,0.00166454725,
468.997345,0.001616736874,
468.005127,0.001245138003,
467.0126953,0.001346446923,
465.9818726,0.001780379564,
464.9890137,0.001480661798,
463.9960327,0.001421054592,
463.0027771,0.001522924053,
462.0093994,0.001572282985,
461.0158386,0.002313288627,
459.9837341,0.001198827405,
458.9898071,-1.982819958E-005,
457.995636,0.001139181084,
457.0012512,0.001167497714,
456.0067444,0.001381736598,
455.0120544,0.001381113427,
454.0171509,0.002104260493,
452.9837952,0.002175772563,
451.9884949,0.001488038572,
450.992981,0.001606811653,
449.9973755,0.001742406399,
449.0015564,0.002218649024,
448.0055542,0.002305013128,
447.0093384,0.001816224423,
446.0129089,0.001529937959,
445.0164185,0.001607876853,
443.9813232,0.002112662187,
442.984375,0.002363023814,
441.9872131,0.002403732156,
440.9899292,0.002407949185,
439.9924927,0.001918108552,
438.994873,0.002300927415,
437.9970093,0.002208761871,
436.9989929,0.002407142194,
436.000824,0.002244330011,
435.0024109,0.002388817491,
434.0038757,0.002222577808,
433.0051575,0.001787241548,
432.0062866,0.001982178772,
431.0072021,0.001712700818,
430.0079346,0.002316255355,
429.0085449,0.002376219723,
428.0089111,0.002409068402,
427.0091248,0.001766681788,
426.0091858,0.001945566037,
425.0090942,0.001759560197,
424.0087585,0.001676214859,
423.0083008,0.0006892946549,
422.0076294,0.001471804571,
421.006897,0.0008527179016,
420.0058899,0.000351000228,
419.0046692,0.0006273333565,
418.0033875,0.0006319218082,
417.0018616,0.0008710556431,
416.0002136,0.0009622111684,
414.9983826,0.001147019211,
413.9963684,0.001456792001,
412.9942322,0.001006369013,
411.9919128,0.00171342853,
410.9893494,0.002290570177,
409.9866638,0.002047792776,
408.9838562,0.002332546981,
407.9808044,0.002777105663,
407.0162354,0.003432417521,
406.0129089,0.003866116051,
405.0093689,0.004796683788,
404.0057068,0.004640979692,
403.0019226,0.005232062191,
401.9979248,0.00710255187,
400.9937439,0.007772043813,
399.9894104,0.009492634796,
398.9849243,0.01057078596,
398.0189209,0.01230681036,
397.0140991,0.01404779591,
396.0091553,0.01633992605,
395.0039978,0.02015512437,
393.9987488,0.02138553001,
392.9932556,0.0242114719,
391.9876404,0.02922330052,
390.9818726,0.03051744215,
390.0146484,0.03682505339,
389.0085449,0.04345704988,
388.0023193,0.04842010885,
386.9959106,0.05450827256,
385.9893494,0.06087203696,
384.982605,0.06887967139,
384.0144653,0.0782264322,
383.0074768,0.08656615019,
382.0002747,0.09826618433,
380.9929199,0.1088136658,
379.9854431,0.1210177839,
379.016571,0.1363784075,
378.0087891,0.1506338865,
377.000824,0.1616811454,
375.9927368,0.177610755,
374.9844666,0.1957630664,
374.0148621,0.213800624,
373.0062866,0.2324990481,
371.9975891,0.2558017075,
370.9887085,0.2704450488,
370.0185242,0.2901335955,
369.0093384,0.3158933818,
368.000061,0.3380859494,
366.9906006,0.3603501618,
365.9810181,0.3819352686,
365.0100708,0.4050250053,
364.0001831,0.4300642014,
362.9901428,0.4558972716,
362.0187988,0.4757287502,
361.0084229,0.4895659387,
359.9979858,0.5122187138,
358.9873352,0.5368154645,
358.0154419,0.5570257306,
357.0045166,0.5686323643,
355.9934692,0.5862888694,
354.9822388,0.5994775891,
354.0097961,0.6149311662,
352.9983215,0.6244168282,
351.9866638,0.6355916858,
351.0137939,0.6424494386,
350.0019226,0.6482015252,
348.9898376,0.6530377269,
348.0165405,0.656801641,
347.0042419,0.659662962,
345.9917603,0.6587519646,
345.0180664,0.6575115323,
344.0053101,0.6541791558,
342.9924316,0.650854826,
342.0183411,0.6466017365,
341.0051575,0.6401121616,
339.9918518,0.6333011985,
339.0174255,0.6239456534,
338.0038147,0.613787353,
336.9901123,0.603980422,
336.0152283,0.5952766538,
335.0012512,0.5832531452,
333.9871521,0.5698003173,
333.0119019,0.5571267605,
331.9974976,0.5459494591,
330.9829712,0.5369647741,
330.0072937,0.5269943476,
328.9925537,0.5168823004,
328.0166321,0.5089843869,
327.0015869,0.5041149855,
325.9864197,0.4985513985,
325.0101318,0.4992350936,
323.9946594,0.4976720214,
323.018158,0.500533998,
322.0024719,0.5045989752,
320.9866333,0.5100060105,
320.0097046,0.5152777433,
318.9936523,0.5174341798,
318.01651,0.5206140876,
317.0001526,0.5239403248,
315.9836731,0.5243734717,
315.0061646,0.523099184,
313.9894409,0.5158187151,
313.0116882,0.5112550855,
311.9947205,0.5033858418,
311.0166931,0.4949659705,
309.9995117,0.4820491672,
308.9821167,0.4708132148,
308.0037842,0.4561386108,
306.9861755,0.44419083,
306.0075989,0.4308259785,
304.9897461,0.4171965122,
304.0109253,0.4023380876,
302.9928284,0.3863426149,
302.0137634,0.372353524,
300.9954224,0.3592292368,
300.0161743,0.3437350392,

Quinine stock,
Quinine stock
Collection Time: 2/5/2025 3:28:00 PM
Operator Name  :
Scan Version 5.1.0.1016
Parameter List :
Instrument  Cary 60
Instrument Version  2.00
Start (nm)  700.0
Stop (nm)  300.0
X Mode  Nanometers
Y Mode  Abs
UV-Vis Scan Rate (nm/min)  4800.00
UV-Vis Data Interval (nm)  1.00
UV-Vis Ave. Time (sec)  0.0125
Beam Mode  Dual Beam
Baseline Correction  On
Baseline Type  Zero/baseline correction
Baseline File Name
Baseline Std Ref File Name
Cycle Mode  Off
Method Log     :
Method Name    :
Date/Time stamp: 2/5/2025 1:50:33 PM
Method Modifications:
X Start nm Changed: 2/5/2025 1:51:17 PM, Old:  800.0, New:  700.0
X Stop nm Changed: 2/5/2025 1:51:17 PM, Old:  200.0, New:  300.0
Common Interval nm Changed: 2/5/2025 1:51:17 PM, Old:     5.00, New:     1.00
Baseline Correction Changed: 2/5/2025 1:51:17 PM, Old:0, New:2
End Method Modifications
<Current Wavelength> , 308.0

