o5,,
Wavelength (nm),Abs,
800.0029907,0.0005255700671,
798.9966431,-0.0004259258858,
797.9899292,-0.000291533448,
796.9829102,-0.0003245405096,
796.0100708,0.0002845800191,
795.0021362,-0.0001463346125,
793.9938965,0.0001614031207,
792.9851685,0.0002752291621,
792.0108643,-0.0004112885508,
791.0012817,0.0008015994099,
789.991394,0.0007970091538,
789.0159302,0.001066697761,
788.0053101,0.0008548187907,
786.9941406,0.0007699872949,
785.982605,0.0008242142503,
785.0056763,0.001337722293,
783.9933472,2.847549877E-005,
783.015686,0.0007145224954,
782.0025635,1.216642204E-006,
780.9891357,0.0008129585767,
780.0102539,0.0004411914852,
778.9960327,0.0002440438111,
778.0163574,-0.0002615248377,
777.0014038,0.001479700673,
775.9860229,0.001300307224,
775.005188,0.0007188007003,
773.9890137,0.0008393087774,
773.0075684,0.001269567409,
771.9906006,0.0008508763858,
771.0083618,0.002150277607,
769.9906616,0.001332373358,
769.0076904,0.001443234272,
767.9891357,0.001892888802,
767.0054932,0.00291486457,
765.9862061,0.002893782454,
765.00177,0.002214902313,
764.0169067,0.002138649346,
762.996521,0.00318550691,
762.0109863,0.00234160386,
760.9898682,0.002540018875,
760.00354,0.003198754042,
759.0169067,0.003758264473,
757.9946289,0.004034736659,
757.0072021,0.003567096079,
755.9841919,0.004596372601,
754.9960938,0.005832397845,
754.0076294,0.006143510342,
752.9834595,0.00620158948,
751.9942627,0.007220396306,
751.0046997,0.00715741748,
750.0148315,0.008983721957,
748.9892578,0.01027692202,
747.9985962,0.01049681753,
747.0076294,0.0112796016,
746.0162354,0.01341878343,
744.9891968,0.01441652142,
743.9970703,0.01520230807,
743.0046387,0.01657323912,
742.0119629,0.01747605763,
740.9833374,0.01974077895,
739.9898682,0.02159357443,
738.9960938,0.02319250256,
738.0019531,0.02557010949,
737.0073853,0.02832548507,
736.0125732,0.03071135096,
735.017395,0.03393281996,
733.9862671,0.03744676709,
732.9902954,0.04056971148,
731.9940186,0.04476527497,
730.9974365,0.04857061803,
730.0004883,0.05298002064,
729.0031738,0.05813687295,
728.0055542,0.06391573697,
727.0075684,0.06931158155,
726.0092163,0.07554741949,
725.0105591,0.0822923854,
724.0115356,0.09028356522,
723.012207,0.09902323037,
722.0124512,0.1074433923,
721.0124512,0.1185665429,
720.0120239,0.1303489208,
719.0113525,0.1408672184,
718.0103149,0.1527872831,
717.0089111,0.1672194004,
716.0071411,0.1821535975,
715.0050659,0.1989596933,
714.0026245,0.2190188915,
712.9998169,0.2389071286,
711.9968262,0.2601784766,
710.9933472,0.282530725,
709.989563,0.3065672219,
708.9854736,0.33177948,
708.0169678,0.3597571254,
707.012146,0.3886959553,
706.0070801,0.4215697646,
705.0015869,0.4573259652,
703.9959106,0.4892786145,
702.9898071,0.5230225921,
701.9833984,0.5558319688,
701.0125732,0.5885674953,
700.0054932,0.6241916418,
698.9980469,0.6587557197,
697.9903564,0.6940777898,
696.9822998,0.7288504839,
696.0099487,0.7585452795,
695.0011597,0.792088151,
693.9921265,0.8192949295,
692.9827881,0.849860847,
692.0091553,0.8805345297,
690.9991455,0.9070935845,
689.9888306,0.9352005124,
689.0142822,0.9536709189,
688.0032349,0.9694840312,
686.9919434,0.9831291437,
686.0164795,0.9944293499,
685.0045776,1.009409428,
683.9922485,1.013558626,
683.0158081,1.016452193,
682.0029297,1.019854784,
680.9897461,1.016844869,
680.0123901,1.010527968,
678.9984741,0.9987510443,
677.984314,0.9867597222,
677.0061035,0.9680401087,
675.991272,0.9527876377,
675.0123901,0.9337931275,
673.9970093,0.9168428183,
673.0175171,0.8950417638,
672.0014648,0.8675985336,
670.9850464,0.8391088247,
670.0046997,0.8204107881,
668.9876709,0.7949951291,
668.0067139,0.7660328746,
666.9891968,0.7414003015,
666.0075073,0.7186882496,
664.9893188,0.6903643608,
664.0072021,0.6685410738,
662.9882813,0.6399619579,
662.0054932,0.6148506999,
660.9860229,0.5914296508,
660.0027466,0.5707044601,
658.982605,0.5481738448,
657.9986572,0.52880162,
657.0144653,0.5109820962,
655.9934692,0.4912437499,
655.008606,0.4733677208,
653.9870605,0.4562033415,
653.0016479,0.4440308213,
652.0159302,0.4299782217,
650.9934082,0.4178606868,
650.0071411,0.4056936502,
648.9840088,0.3944858611,
647.9971924,0.3857041597,
647.0100098,0.376996845,
645.9859619,0.3693813682,
644.998291,0.3619704247,
644.0102539,0.3582040668,
642.9853516,0.3511859775,
641.9967651,0.3472925425,
641.0079346,0.3428012133,
639.9821167,0.3383392394,
638.9927368,0.3347044587,
638.0029297,0.3308866024,
637.0130005,0.3283444941,
635.9860229,0.3250501156,
634.9954224,0.3221634924,
634.0045776,0.3195028007,
633.0134888,0.3157986999,
631.9852905,0.3129051328,
630.9936523,0.3096612096,
630.0016479,0.3066326678,
629.0093994,0.302659601,
628.0169067,0.3002584577,
626.9873047,0.2962105572,
625.9942017,0.2915692925,
625.0008545,0.2880495489,
624.0072632,0.2836628258,
623.0132446,0.2791051865,
621.9822998,0.2754845917,
620.987854,0.2703837454,
619.993103,0.2658299506,
618.9980469,0.2599783242,
618.0028076,0.2552372217,
617.0072021,0.2504433393,
616.0114136,0.2449662089,
615.0152588,0.2398509085,
613.9819946,0.2346707135,
612.9853516,0.2289131284,
611.9884644,0.2239980102,
610.991333,0.2186090052,
609.9937744,0.2126705498,
608.9960938,0.2079523057,
607.9981079,0.2030607015,
606.9998169,0.196911484,
606.0012817,0.1916739047,
605.0025024,0.18701379,
604.003479,0.1825802326,
603.0040894,0.1778040677,
602.0045776,0.1726347357,
601.0046997,0.1668397337,
600.0045776,0.1620727181,
599.0041504,0.1578299403,
598.003479,0.1535563618,
597.0026245,0.1494750679,
596.0014038,0.1451498717,
595,0.1410135478,
593.9983521,0.1373770684,
592.9963989,0.133066237,
591.9941406,0.1305807531,
590.9916992,0.1270843446,
589.9889526,0.1246295273,
588.9859009,0.12157619,
587.982666,0.118488051,
587.0163574,0.1159614772,
586.0125732,0.11331404,
585.0085449,0.1111024544,
584.0042725,0.1087097526,
582.9997559,0.1061346456,
581.9949951,0.1033502221,
580.9898682,0.1009167805,
579.9846191,0.09932471812,
579.0162964,0.09696064889,
578.010498,0.09476403147,
577.0044556,0.09312881529,
575.9981689,0.09053848684,
574.9915771,0.08895643055,
573.9848022,0.08704562485,
573.0150146,0.08526480198,
572.0076904,0.08370877802,
571.0001221,0.08174815029,
569.9923096,0.07997632772,
568.984314,0.0782160759,
568.0133057,0.0765864253,
567.0046997,0.07509446144,
565.9959717,0.07331789285,
564.9869385,0.07146003097,
564.0150146,0.06987033039,
563.0053711,0.06812422723,
561.9956665,0.06648728997,
560.9855957,0.06484405696,
560.0128174,0.06380334496,
559.0022583,0.0615982227,
557.9914551,0.05981943011,
557.0178833,0.0583980009,
556.0067139,0.05664338544,
554.9951782,0.05551156402,
553.9834595,0.05387989804,
553.0090332,0.05247931927,
551.9967651,0.05109649152,
550.984314,0.04933523014,
550.0091553,0.04783945903,
548.9962769,0.04632949829,
547.9830322,0.04444244504,
547.0071411,0.04336138815,
545.9935303,0.04199931771,
545.0172119,0.04069489613,
544.0031128,0.03915442526,
542.9887085,0.03787361458,
542.0117798,0.03660459816,
540.9969482,0.03574185818,
539.9818726,0.03422266617,
539.0042114,0.03301388398,
537.9887085,0.03172903135,
537.0105591,0.03103350103,
535.9945679,0.03006582521,
535.0159302,0.02921715379,
533.9995117,0.02813103609,
532.9828491,0.02736153081,
532.0036011,0.02648818679,
530.9863892,0.02570966259,
530.0067139,0.02488532476,
528.9891968,0.02393441088,
528.0089722,0.02320981584,
526.9909668,0.02234853245,
526.010437,0.02168004215,
524.9918823,0.02106839046,
524.0109253,0.02028673701,
522.9919434,0.01962682791,
522.010498,0.01889840141,
520.9910889,0.01840109192,
520.0092163,0.01767619886,
518.9893188,0.01729287021,
518.007019,0.01667159796,
516.9867554,0.01618024334,
516.0039063,0.01567661576,
514.9832153,0.01490700897,
514.000061,0.01474520192,
513.0166626,0.01425671577,
511.9952393,0.01376354136,
511.0114441,0.01329406723,
509.989624,0.01310777944,
509.0054321,0.01291210577,
507.9830627,0.01259536203,
506.9984436,0.01225222182,
506.0135498,0.01189033035,
504.9906311,0.01148711331,
504.0054016,0.0116191553,
502.9819946,0.01142452285,
501.9963379,0.01110493205,
501.010376,0.0115066506,
499.9863281,0.01080802642,
499.000061,0.01105344202,
498.0135193,0.01146638207,
496.9888306,0.01147552487,
496.0019226,0.01192659326,
495.0147705,0.01212339476,
493.989502,0.01249379292,
493.0019226,0.01336675137,
492.0141907,0.01409341209,
490.9882507,0.01511009783,
490.0000916,0.01571475342,
489.0117188,0.01623070613,
487.9851379,0.01714856364,
486.9963989,0.01760836877,
486.0074463,0.01809643209,
485.0183105,0.01822029427,
483.9909058,0.01846623607,
483.0013428,0.01872739568,
482.0115662,0.01870864071,
480.9836121,0.01824828982,
479.9934387,0.01799248904,
479.0029907,0.01723342389,
478.0124817,0.01664929837,
476.9836426,0.01615990326,
475.9927368,0.01545437705,
475.0015869,0.01499025337,
474.0102844,0.01440102793,
473.0187073,0.01382093877,
471.9888916,0.01323609892,
470.9969482,0.01289613266,
470.0048523,0.01253402326,
469.0125732,0.01210393663,
467.981842,0.01160054468,
466.9892273,0.0114058936,
465.9963379,0.01098504569,
465.0032959,0.01118131448,
464.0099182,0.01106239017,
463.0165405,0.01072762255,
461.9846802,0.01060309354,
460.9908447,0.01040472556,
459.9968262,0.01042201277,
459.002655,0.01035809051,
458.0082397,0.009986144491,
457.0136108,0.009769049473,
456.0188599,0.009664963,
454.9856567,0.009331800044,
453.990509,0.00918337144,
452.9951782,0.008850338869,
451.9996338,0.008662276901,
451.0039673,0.008515424095,
450.0080872,0.007963147946,
449.0120239,0.007729142904,
448.0157776,0.007372841705,
446.9810181,0.007111418992,
445.984375,0.006552305073,
444.9875488,0.006163753103,
443.9905701,0.006195366383,
442.9934387,0.005844545085,
441.9960632,0.005643802229,
440.9985046,0.005512253381,
440.000824,0.005347775295,
439.0029297,0.005385593511,
438.0048218,0.005110852886,
437.0066223,0.004919637926,
436.0082092,0.004627636168,
435.009613,0.00452880282,
434.0108032,0.004489254672,
433.0118713,0.004171092063,
432.0127563,0.004251284059,
431.0134583,0.004172607791,
430.0139465,0.004139573313,
429.0142822,0.004197934177,
428.0144653,0.004102856852,
427.0144348,0.004267883487,
426.0142517,0.004099407233,
425.013916,0.0042296662,
424.0133972,0.004141428974,
423.0126953,0.004181389697,
422.0118408,0.004185336176,
421.0107727,0.004058461171,
420.0095215,0.004227444064,
419.0081482,0.004243650939,
418.0065918,0.004261530936,
417.0048828,0.004391263239,
416.0029602,0.004586745054,
415.000885,0.004418982193,
413.9986877,0.004364853725,
412.9962769,0.004626119044,
411.9936829,0.00504652923,
410.9909363,0.005014868453,
409.9880371,0.005451592617,
408.9848938,0.005089140031,
407.9816589,0.005283678416,
407.0168457,0.005460950546,
406.0133057,0.005498516373,
405.0095825,0.005336978473,
404.0056152,0.005618391559,
403.0015564,0.005659510847,
401.997345,0.005996560678,
400.9929199,0.005937668961,
399.9884033,0.006411943119,

o5,
o5
Collection Time: 2/16/2024 8:46:26 AM
Operator Name  :
Scan Version 5.1.0.1016
Parameter List :
Instrument  Cary 60
Instrument Version  2.00
Start (nm)  800.0
Stop (nm)  400.0
X Mode  Nanometers
Y Mode  Abs
UV-Vis Scan Rate (nm/min)  4800.00
UV-Vis Data Interval (nm)  1.00
UV-Vis Ave. Time (sec)  0.0125
Beam Mode  Dual Beam
Baseline Correction  On
Baseline Type  Zero/baseline correction
Baseline File Name
Baseline Std Ref File Name
Cycle Mode  Off
Method Log     :
Method Name    :
Date/Time stamp: 2/16/2024 8:00:54 AM
Method Modifications:
X Stop nm Changed: 2/16/2024 8:11:49 AM, Old:  200.0, New:  400.0
Baseline Correction Changed: 2/16/2024 8:24:33 AM, Old:0, New:2
Y Max Abs Changed: 2/16/2024 8:28:20 AM, Old:     1.00, New:     1.50
Peak Selection Changed: 2/16/2024 8:40:53 AM, Old:All Peaks, New:Maximum
Peak Position Changed: 2/16/2024 8:41:33 AM, Old:Top, New:Right
Common Interval nm Changed: 2/16/2024 8:44:51 AM, Old:     5.00, New:     2.00
Common Interval nm Changed: 2/16/2024 8:46:14 AM, Old:     2.00, New:     1.00
End Method Modifications
<Current Wavelength> , 424.0

